## w(eV)         sigma(Sm^-1)     kappa(W(mK)^-1)        L12/e(Am^-1)      L22/e^2(Wm^-1)
    0.01              360934              628.66        -7.19396e+06         2.02941e+08
    0.03              360931             628.652        -7.19392e+06          2.0294e+08
    0.05              360924             628.636        -7.19384e+06         2.02938e+08
    0.07              360915             628.612        -7.19371e+06         2.02934e+08
    0.09              360902             628.581        -7.19355e+06          2.0293e+08
    0.11              360886             628.541        -7.19334e+06         2.02924e+08
    0.13              360867             628.493         -7.1931e+06         2.02917e+08
    0.15              360844             628.437        -7.19281e+06          2.0291e+08
    0.17              360819             628.373        -7.19248e+06         2.02901e+08
    0.19              360790             628.301        -7.19211e+06          2.0289e+08
    0.21              360758             628.222        -7.19169e+06         2.02879e+08
    0.23              360723             628.134        -7.19124e+06         2.02867e+08
    0.25              360684             628.038        -7.19074e+06         2.02853e+08
    0.27              360643             627.935        -7.19021e+06         2.02839e+08
    0.29              360598             627.823        -7.18963e+06         2.02823e+08
    0.31              360550             627.704        -7.18901e+06         2.02806e+08
    0.33              360499             627.576        -7.18835e+06         2.02788e+08
    0.35              360444             627.441        -7.18765e+06         2.02769e+08
    0.37              360387             627.297        -7.18691e+06         2.02748e+08
    0.39              360326             627.146        -7.18612e+06         2.02727e+08
    0.41              360262             626.987         -7.1853e+06         2.02704e+08
    0.43              360195              626.82        -7.18443e+06         2.02681e+08
    0.45              360124             626.645        -7.18353e+06         2.02656e+08
    0.47              360051             626.462        -7.18258e+06          2.0263e+08
    0.49              359974             626.272        -7.18159e+06         2.02603e+08
    0.51              359894             626.073        -7.18055e+06         2.02575e+08
    0.53              359811             625.867        -7.17948e+06         2.02546e+08
    0.55              359725             625.652        -7.17837e+06         2.02515e+08
    0.57              359636              625.43        -7.17721e+06         2.02484e+08
    0.59              359543               625.2        -7.17602e+06         2.02451e+08
    0.61              359447             624.962        -7.17478e+06         2.02417e+08
    0.63              359348             624.717         -7.1735e+06         2.02382e+08
    0.65              359246             624.463        -7.17218e+06         2.02346e+08
    0.67              359141             624.202        -7.17081e+06         2.02309e+08
    0.69              359032             623.933        -7.16941e+06         2.02271e+08
    0.71              358921             623.656        -7.16797e+06         2.02231e+08
    0.73              358806             623.372        -7.16648e+06         2.02191e+08
    0.75              358688              623.08        -7.16495e+06         2.02149e+08
    0.77              358567              622.78        -7.16338e+06         2.02106e+08
    0.79              358443             622.472        -7.16177e+06         2.02062e+08
    0.81              358315             622.157        -7.16012e+06         2.02017e+08
    0.83              358185             621.834        -7.15843e+06         2.01971e+08
    0.85              358051             621.503        -7.15669e+06         2.01924e+08
    0.87              357914             621.164        -7.15491e+06         2.01875e+08
    0.89              357774             620.818         -7.1531e+06         2.01826e+08
    0.91              357631             620.465        -7.15124e+06         2.01775e+08
    0.93              357485             620.103        -7.14934e+06         2.01723e+08
    0.95              357335             619.734        -7.14739e+06         2.01671e+08
    0.97              357183             619.358        -7.14541e+06         2.01617e+08
    0.99              357027             618.974        -7.14339e+06         2.01561e+08
    1.01              356869             618.582        -7.14132e+06         2.01505e+08
    1.03              356707             618.183        -7.13921e+06         2.01448e+08
    1.05              356542             617.776        -7.13706e+06         2.01389e+08
    1.07              356374             617.362        -7.13487e+06          2.0133e+08
    1.09              356202             616.941        -7.13264e+06         2.01269e+08
    1.11              356028             616.512        -7.13036e+06         2.01207e+08
    1.13              355851             616.075        -7.12805e+06         2.01144e+08
    1.15              355670             615.631        -7.12569e+06          2.0108e+08
    1.17              355487              615.18        -7.12329e+06         2.01015e+08
    1.19              355300             614.721        -7.12085e+06         2.00949e+08
    1.21              355110             614.255        -7.11837e+06         2.00881e+08
    1.23              354917             613.782        -7.11584e+06         2.00813e+08
    1.25              354721             613.301        -7.11328e+06         2.00743e+08
    1.27              354522             612.813        -7.11067e+06         2.00672e+08
    1.29              354320             612.317        -7.10802e+06           2.006e+08
    1.31              354115             611.815        -7.10533e+06         2.00527e+08
    1.33              353907             611.305         -7.1026e+06         2.00453e+08
    1.35              353696             610.788        -7.09982e+06         2.00378e+08
    1.37              353481             610.264        -7.09701e+06         2.00302e+08
    1.39              353264             609.733        -7.09415e+06         2.00224e+08
    1.41              353043             609.194        -7.09125e+06         2.00146e+08
    1.43              352820             608.648        -7.08831e+06         2.00066e+08
    1.45              352593             608.096        -7.08533e+06         1.99985e+08
    1.47              352364             607.536         -7.0823e+06         1.99903e+08
    1.49              352131             606.969        -7.07924e+06          1.9982e+08
    1.51              351896             606.395        -7.07613e+06         1.99736e+08
    1.53              351657             605.814        -7.07298e+06         1.99651e+08
    1.55              351416             605.226        -7.06979e+06         1.99565e+08
    1.57              351171             604.632        -7.06655e+06         1.99477e+08
    1.59              350923              604.03        -7.06328e+06         1.99389e+08
    1.61              350673             603.421        -7.05996e+06         1.99299e+08
    1.63              350419             602.806         -7.0566e+06         1.99208e+08
    1.65              350163             602.184         -7.0532e+06         1.99116e+08
    1.67              349903             601.554        -7.04975e+06         1.99023e+08
    1.69              349641             600.918        -7.04627e+06         1.98929e+08
    1.71              349375             600.276        -7.04274e+06         1.98834e+08
    1.73              349107             599.626        -7.03917e+06         1.98738e+08
    1.75              348835              598.97        -7.03556e+06          1.9864e+08
    1.77              348561             598.307        -7.03191e+06         1.98542e+08
    1.79              348283             597.638        -7.02821e+06         1.98442e+08
    1.81              348003             596.962        -7.02448e+06         1.98341e+08
    1.83              347720             596.279         -7.0207e+06          1.9824e+08
    1.85              347434              595.59        -7.01688e+06         1.98137e+08
    1.87              347145             594.894        -7.01301e+06         1.98033e+08
    1.89              346853             594.192        -7.00911e+06         1.97928e+08
    1.91              346558             593.483        -7.00516e+06         1.97821e+08
    1.93              346260             592.768        -7.00117e+06         1.97714e+08
    1.95              345959             592.046        -6.99714e+06         1.97606e+08
    1.97              345656             591.318        -6.99307e+06         1.97496e+08
    1.99              345349             590.584        -6.98895e+06         1.97385e+08
    2.01              345040             589.843        -6.98479e+06         1.97274e+08
    2.03              344727             589.096        -6.98059e+06         1.97161e+08
    2.05              344412             588.343        -6.97635e+06         1.97047e+08
    2.07              344094             587.583        -6.97207e+06         1.96932e+08
    2.09              343773             586.817        -6.96774e+06         1.96816e+08
    2.11              343450             586.045        -6.96337e+06         1.96699e+08
    2.13              343123             585.267        -6.95896e+06          1.9658e+08
    2.15              342794             584.483        -6.95451e+06         1.96461e+08
    2.17              342461             583.693        -6.95001e+06          1.9634e+08
    2.19              342126             582.897        -6.94547e+06         1.96219e+08
    2.21              341788             582.095        -6.94089e+06         1.96096e+08
    2.23              341448             581.286        -6.93627e+06         1.95972e+08
    2.25              341104             580.472        -6.93161e+06         1.95847e+08
    2.27              340758             579.652         -6.9269e+06         1.95721e+08
    2.29              340409             578.826        -6.92215e+06         1.95594e+08
    2.31              340057             577.994        -6.91736e+06         1.95466e+08
    2.33              339702             577.157        -6.91252e+06         1.95337e+08
    2.35              339345             576.313        -6.90765e+06         1.95207e+08
    2.37              338984             575.464        -6.90273e+06         1.95075e+08
    2.39              338621             574.609        -6.89777e+06         1.94943e+08
    2.41              338256             573.749        -6.89276e+06         1.94809e+08
    2.43              337887             572.882        -6.88772e+06         1.94674e+08
    2.45              337516             572.011        -6.88263e+06         1.94539e+08
    2.47              337142             571.133         -6.8775e+06         1.94402e+08
    2.49              336765              570.25        -6.87233e+06         1.94264e+08
    2.51              336386             569.362        -6.86711e+06         1.94125e+08
    2.53              336004             568.468        -6.86185e+06         1.93985e+08
    2.55              335619             567.569        -6.85655e+06         1.93844e+08
    2.57              335232             566.664        -6.85121e+06         1.93701e+08
    2.59              334841             565.754        -6.84582e+06         1.93558e+08
    2.61              334448             564.839        -6.84039e+06         1.93414e+08
    2.63              334053             563.918        -6.83492e+06         1.93268e+08
    2.65              333655             562.992        -6.82941e+06         1.93121e+08
    2.67              333254             562.061        -6.82386e+06         1.92974e+08
    2.69              332850             561.125        -6.81826e+06         1.92825e+08
    2.71              332444             560.184        -6.81262e+06         1.92675e+08
    2.73              332036             559.237        -6.80693e+06         1.92524e+08
    2.75              331624             558.286        -6.80121e+06         1.92372e+08
    2.77              331210             557.329        -6.79544e+06         1.92219e+08
    2.79              330794             556.367        -6.78963e+06         1.92065e+08
    2.81              330374             555.401        -6.78378e+06          1.9191e+08
    2.83              329953             554.429        -6.77788e+06         1.91754e+08
    2.85              329528             553.453        -6.77194e+06         1.91596e+08
    2.87              329101             552.472        -6.76596e+06         1.91438e+08
    2.89              328672             551.486        -6.75994e+06         1.91278e+08
    2.91              328240             550.495        -6.75387e+06         1.91118e+08
    2.93              327805               549.5        -6.74776e+06         1.90956e+08
    2.95              327368               548.5        -6.74161e+06         1.90793e+08
    2.97              326928             547.495        -6.73542e+06         1.90629e+08
    2.99              326486             546.485        -6.72918e+06         1.90465e+08
    3.01              326041             545.471         -6.7229e+06         1.90299e+08
    3.03              325594             544.453        -6.71658e+06         1.90132e+08
    3.05              325144              543.43        -6.71022e+06         1.89964e+08
    3.07              324692             542.402        -6.70381e+06         1.89794e+08
    3.09              324237              541.37        -6.69736e+06         1.89624e+08
    3.11              323780             540.334        -6.69087e+06         1.89453e+08
    3.13              323321             539.293        -6.68433e+06         1.89281e+08
    3.15              322859             538.248        -6.67776e+06         1.89107e+08
    3.17              322394             537.199        -6.67114e+06         1.88933e+08
    3.19              321927             536.146        -6.66448e+06         1.88757e+08
    3.21              321458             535.088        -6.65777e+06         1.88581e+08
    3.23              320986             534.026        -6.65102e+06         1.88403e+08
    3.25              320512              532.96        -6.64423e+06         1.88224e+08
    3.27              320035              531.89         -6.6374e+06         1.88045e+08
    3.29              319556             530.816        -6.63053e+06         1.87864e+08
    3.31              319074             529.738        -6.62361e+06         1.87682e+08
    3.33              318591             528.656        -6.61665e+06         1.87499e+08
    3.35              318104              527.57        -6.60965e+06         1.87315e+08
    3.37              317616             526.481         -6.6026e+06          1.8713e+08
    3.39              317125             525.387        -6.59552e+06         1.86944e+08
    3.41              316632              524.29        -6.58839e+06         1.86757e+08
    3.43              316136             523.188        -6.58122e+06         1.86568e+08
    3.45              315639             522.083          -6.574e+06         1.86379e+08
    3.47              315138             520.975        -6.56674e+06         1.86189e+08
    3.49              314636             519.863        -6.55944e+06         1.85997e+08
    3.51              314131             518.747         -6.5521e+06         1.85805e+08
    3.53              313624             517.627        -6.54472e+06         1.85612e+08
    3.55              313115             516.504        -6.53729e+06         1.85417e+08
    3.57              312603             515.378        -6.52982e+06         1.85221e+08
    3.59              312090             514.248        -6.52231e+06         1.85025e+08
    3.61              311574             513.115        -6.51476e+06         1.84827e+08
    3.63              311055             511.978        -6.50716e+06         1.84628e+08
    3.65              310535             510.838        -6.49953e+06         1.84429e+08
    3.67              310012             509.695        -6.49185e+06         1.84228e+08
    3.69              309487             508.549        -6.48412e+06         1.84026e+08
    3.71              308960             507.399        -6.47636e+06         1.83823e+08
    3.73              308431             506.246        -6.46855e+06         1.83619e+08
    3.75              307900              505.09         -6.4607e+06         1.83414e+08
    3.77              307366             503.931        -6.45281e+06         1.83208e+08
    3.79              306830             502.769        -6.44488e+06         1.83001e+08
    3.81              306292             501.603         -6.4369e+06         1.82793e+08
    3.83              305752             500.435        -6.42889e+06         1.82584e+08
    3.85              305210             499.264        -6.42083e+06         1.82374e+08
    3.87              304666              498.09        -6.41273e+06         1.82163e+08
    3.89              304120             496.913        -6.40458e+06         1.81951e+08
    3.91              303571             495.734         -6.3964e+06         1.81737e+08
    3.93              303021             494.551        -6.38817e+06         1.81523e+08
    3.95              302468             493.366         -6.3799e+06         1.81308e+08
    3.97              301913             492.178        -6.37159e+06         1.81092e+08
    3.99              301357             490.988        -6.36324e+06         1.80874e+08
    4.01              300798             489.794        -6.35484e+06         1.80656e+08
    4.03              300237             488.599        -6.34641e+06         1.80436e+08
    4.05              299674               487.4        -6.33793e+06         1.80216e+08
    4.07              299110             486.199        -6.32941e+06         1.79995e+08
    4.09              298543             484.996        -6.32085e+06         1.79772e+08
    4.11              297974              483.79        -6.31225e+06         1.79549e+08
    4.13              297403             482.582         -6.3036e+06         1.79324e+08
    4.15              296831             481.372        -6.29492e+06         1.79099e+08
    4.17              296256             480.159        -6.28619e+06         1.78872e+08
    4.19              295680             478.944        -6.27743e+06         1.78644e+08
    4.21              295101             477.727        -6.26862e+06         1.78416e+08
    4.23              294521             476.507        -6.25977e+06         1.78186e+08
    4.25              293938             475.286        -6.25087e+06         1.77956e+08
    4.27              293354             474.062        -6.24194e+06         1.77724e+08
    4.29              292768             472.836        -6.23297e+06         1.77491e+08
    4.31              292180             471.608        -6.22395e+06         1.77258e+08
    4.33              291590             470.378         -6.2149e+06         1.77023e+08
    4.35              290999             469.146         -6.2058e+06         1.76788e+08
    4.37              290405             467.913        -6.19666e+06         1.76551e+08
    4.39              289810             466.677        -6.18749e+06         1.76313e+08
    4.41              289213             465.439        -6.17827e+06         1.76075e+08
    4.43              288614               464.2        -6.16901e+06         1.75835e+08
    4.45              288013             462.959        -6.15971e+06         1.75594e+08
