## w(eV)         sigma(Sm^-1)     kappa(W(mK)^-1)        L12/e(Am^-1)      L22/e^2(Wm^-1)
    0.01              364239              569.65        -7.32691e+06          2.0135e+08
    0.03              364235             569.643        -7.32687e+06         2.01349e+08
    0.05              364229             569.629        -7.32677e+06         2.01347e+08
    0.07              364219             569.609        -7.32664e+06         2.01343e+08
    0.09              364207             569.581        -7.32645e+06         2.01338e+08
    0.11              364191             569.546        -7.32622e+06         2.01332e+08
    0.13              364171             569.504        -7.32595e+06         2.01325e+08
    0.15              364149             569.455        -7.32562e+06         2.01316e+08
    0.17              364123             569.399        -7.32526e+06         2.01307e+08
    0.19              364094             569.336        -7.32484e+06         2.01296e+08
    0.21              364062             569.267        -7.32438e+06         2.01283e+08
    0.23              364027              569.19        -7.32387e+06          2.0127e+08
    0.25              363989             569.106        -7.32332e+06         2.01255e+08
    0.27              363947             569.016        -7.32272e+06          2.0124e+08
    0.29              363902             568.918        -7.32208e+06         2.01223e+08
    0.31              363854             568.813        -7.32139e+06         2.01204e+08
    0.33              363803             568.702        -7.32065e+06         2.01185e+08
    0.35              363749             568.583        -7.31987e+06         2.01164e+08
    0.37              363691             568.458        -7.31904e+06         2.01142e+08
    0.39              363630             568.326        -7.31816e+06         2.01119e+08
    0.41              363566             568.187        -7.31724e+06         2.01095e+08
    0.43              363499              568.04        -7.31627e+06         2.01069e+08
    0.45              363429             567.887        -7.31526e+06         2.01042e+08
    0.47              363355             567.727         -7.3142e+06         2.01014e+08
    0.49              363279             567.561        -7.31309e+06         2.00985e+08
    0.51              363199             567.387        -7.31194e+06         2.00954e+08
    0.53              363116             567.206        -7.31074e+06         2.00923e+08
    0.55              363029             567.019         -7.3095e+06          2.0089e+08
    0.57              362940             566.824         -7.3082e+06         2.00856e+08
    0.59              362847             566.623        -7.30687e+06          2.0082e+08
    0.61              362751             566.415        -7.30548e+06         2.00784e+08
    0.63              362652               566.2        -7.30405e+06         2.00746e+08
    0.65              362550             565.978        -7.30257e+06         2.00707e+08
    0.67              362445              565.75        -7.30105e+06         2.00667e+08
    0.69              362336             565.514        -7.29948e+06         2.00625e+08
    0.71              362224             565.272        -7.29786e+06         2.00582e+08
    0.73              362109             565.023         -7.2962e+06         2.00538e+08
    0.75              361991             564.767        -7.29449e+06         2.00493e+08
    0.77              361870             564.505        -7.29273e+06         2.00447e+08
    0.79              361746             564.236        -7.29093e+06         2.00399e+08
    0.81              361618             563.959        -7.28907e+06          2.0035e+08
    0.83              361487             563.677        -7.28718e+06           2.003e+08
    0.85              361353             563.387        -7.28523e+06         2.00248e+08
    0.87              361216             563.091        -7.28324e+06         2.00196e+08
    0.89              361076             562.788         -7.2812e+06         2.00142e+08
    0.91              360933             562.479        -7.27912e+06         2.00087e+08
    0.93              360786             562.162        -7.27699e+06          2.0003e+08
    0.95              360637             561.839        -7.27481e+06         1.99973e+08
    0.97              360484              561.51        -7.27258e+06         1.99914e+08
    0.99              360328             561.174        -7.27031e+06         1.99854e+08
    1.01              360169             560.831        -7.26799e+06         1.99793e+08
    1.03              360007             560.481        -7.26562e+06          1.9973e+08
    1.05              359841             560.126        -7.26321e+06         1.99666e+08
    1.07              359673             559.763        -7.26075e+06         1.99601e+08
    1.09              359501             559.394        -7.25824e+06         1.99535e+08
    1.11              359326             559.018        -7.25568e+06         1.99467e+08
    1.13              359148             558.636        -7.25308e+06         1.99399e+08
    1.15              358967             558.247        -7.25043e+06         1.99329e+08
    1.17              358783             557.852        -7.24773e+06         1.99257e+08
    1.19              358596             557.451        -7.24499e+06         1.99185e+08
    1.21              358406             557.043        -7.24219e+06         1.99111e+08
    1.23              358212             556.628        -7.23935e+06         1.99036e+08
    1.25              358016             556.207        -7.23646e+06         1.98959e+08
    1.27              357816              555.78        -7.23353e+06         1.98882e+08
    1.29              357613             555.346        -7.23054e+06         1.98803e+08
    1.31              357407             554.906        -7.22751e+06         1.98723e+08
    1.33              357198              554.46        -7.22443e+06         1.98641e+08
    1.35              356986             554.007         -7.2213e+06         1.98559e+08
    1.37              356771             553.548        -7.21813e+06         1.98475e+08
    1.39              356553             553.083         -7.2149e+06          1.9839e+08
    1.41              356331             552.611        -7.21163e+06         1.98303e+08
    1.43              356107             552.133        -7.20831e+06         1.98216e+08
    1.45              355879             551.649        -7.20495e+06         1.98127e+08
    1.47              355649             551.159        -7.20153e+06         1.98036e+08
    1.49              355415             550.663        -7.19807e+06         1.97945e+08
    1.51              355179              550.16        -7.19455e+06         1.97852e+08
    1.53              354939             549.652        -7.19099e+06         1.97758e+08
    1.55              354696             549.137        -7.18738e+06         1.97663e+08
    1.57              354450             548.616        -7.18372e+06         1.97566e+08
    1.59              354201             548.089        -7.18002e+06         1.97468e+08
    1.61              353949             547.556        -7.17626e+06         1.97369e+08
    1.63              353694             547.017        -7.17246e+06         1.97269e+08
    1.65              353436             546.472        -7.16861e+06         1.97167e+08
    1.67              353175             545.921        -7.16471e+06         1.97064e+08
    1.69              352911             545.364        -7.16076e+06         1.96959e+08
    1.71              352644             544.801        -7.15676e+06         1.96854e+08
    1.73              352374             544.232        -7.15271e+06         1.96747e+08
    1.75              352100             543.657        -7.14861e+06         1.96639e+08
    1.77              351824             543.077        -7.14447e+06         1.96529e+08
    1.79              351545             542.491        -7.14027e+06         1.96419e+08
    1.81              351263             541.898        -7.13603e+06         1.96306e+08
    1.83              350978               541.3        -7.13174e+06         1.96193e+08
    1.85              350689             540.697         -7.1274e+06         1.96078e+08
    1.87              350398             540.087          -7.123e+06         1.95963e+08
    1.89              350104             539.472        -7.11856e+06         1.95845e+08
    1.91              349807             538.851        -7.11407e+06         1.95727e+08
    1.93              349507             538.225        -7.10953e+06         1.95607e+08
    1.95              349204             537.593        -7.10495e+06         1.95486e+08
    1.97              348898             536.955        -7.10031e+06         1.95363e+08
    1.99              348589             536.312        -7.09562e+06          1.9524e+08
    2.01              348277             535.663        -7.09088e+06         1.95114e+08
    2.03              347962             535.009        -7.08609e+06         1.94988e+08
    2.05              347644             534.349        -7.08126e+06          1.9486e+08
    2.07              347323             533.684        -7.07637e+06         1.94731e+08
    2.09              346999             533.013        -7.07143e+06         1.94601e+08
    2.11              346672             532.337        -7.06644e+06          1.9447e+08
    2.13              346343             531.656        -7.06141e+06         1.94337e+08
    2.15              346010             530.969        -7.05632e+06         1.94202e+08
    2.17              345675             530.277        -7.05118e+06         1.94067e+08
    2.19              345336              529.58          -7.046e+06          1.9393e+08
    2.21              344995             528.877        -7.04076e+06         1.93792e+08
    2.23              344651             528.169        -7.03547e+06         1.93652e+08
    2.25              344304             527.456        -7.03013e+06         1.93511e+08
    2.27              343954             526.738        -7.02475e+06         1.93369e+08
    2.29              343601             526.015        -7.01931e+06         1.93226e+08
    2.31              343245             525.286        -7.01382e+06         1.93081e+08
    2.33              342887             524.553        -7.00828e+06         1.92935e+08
    2.35              342525             523.814        -7.00269e+06         1.92787e+08
    2.37              342161             523.071        -6.99705e+06         1.92639e+08
    2.39              341794             522.322        -6.99136e+06         1.92488e+08
    2.41              341424             521.569        -6.98562e+06         1.92337e+08
    2.43              341051              520.81        -6.97983e+06         1.92184e+08
    2.45              340675             520.047        -6.97398e+06          1.9203e+08
    2.47              340297             519.279        -6.96809e+06         1.91875e+08
    2.49              339916             518.506        -6.96214e+06         1.91718e+08
    2.51              339531             517.729        -6.95615e+06          1.9156e+08
    2.53              339145             516.946         -6.9501e+06           1.914e+08
    2.55              338755             516.159          -6.944e+06          1.9124e+08
    2.57              338362             515.367        -6.93786e+06         1.91077e+08
    2.59              337967             514.571        -6.93166e+06         1.90914e+08
    2.61              337569              513.77        -6.92541e+06         1.90749e+08
    2.63              337168             512.964        -6.91911e+06         1.90583e+08
    2.65              336764             512.154        -6.91275e+06         1.90416e+08
    2.67              336358             511.339        -6.90635e+06         1.90247e+08
    2.69              335949              510.52        -6.89989e+06         1.90077e+08
    2.71              335537             509.696        -6.89339e+06         1.89905e+08
    2.73              335122             508.868        -6.88683e+06         1.89732e+08
    2.75              334704             508.036        -6.88022e+06         1.89558e+08
    2.77              334284             507.199        -6.87356e+06         1.89383e+08
    2.79              333861             506.358        -6.86685e+06         1.89206e+08
    2.81              333436             505.512        -6.86009e+06         1.89028e+08
    2.83              333007             504.663        -6.85327e+06         1.88848e+08
    2.85              332576             503.809        -6.84641e+06         1.88667e+08
    2.87              332143             502.951        -6.83949e+06         1.88485e+08
    2.89              331706             502.089        -6.83252e+06         1.88301e+08
    2.91              331267             501.222         -6.8255e+06         1.88116e+08
    2.93              330826             500.352        -6.81843e+06          1.8793e+08
    2.95              330381             499.478        -6.81131e+06         1.87742e+08
    2.97              329934             498.599        -6.80414e+06         1.87553e+08
    2.99              329484             497.717        -6.79691e+06         1.87363e+08
    3.01              329032             496.831        -6.78963e+06         1.87171e+08
    3.03              328577             495.941         -6.7823e+06         1.86978e+08
    3.05              328119             495.047        -6.77492e+06         1.86784e+08
    3.07              327659             494.149        -6.76749e+06         1.86588e+08
    3.09              327196             493.248        -6.76001e+06         1.86391e+08
    3.11              326731             492.343        -6.75247e+06         1.86193e+08
    3.13              326263             491.434        -6.74488e+06         1.85993e+08
    3.15              325792             490.521        -6.73725e+06         1.85792e+08
    3.17              325319             489.605        -6.72956e+06         1.85589e+08
    3.19              324843             488.685        -6.72181e+06         1.85385e+08
    3.21              324365             487.762        -6.71402e+06          1.8518e+08
    3.23              323884             486.835        -6.70617e+06         1.84974e+08
    3.25              323401             485.904        -6.69828e+06         1.84766e+08
    3.27              322915             484.971        -6.69033e+06         1.84557e+08
    3.29              322426             484.033        -6.68233e+06         1.84346e+08
    3.31              321935             483.093        -6.67428e+06         1.84134e+08
    3.33              321441             482.149        -6.66617e+06         1.83921e+08
    3.35              320945             481.202        -6.65802e+06         1.83706e+08
    3.37              320447             480.251        -6.64981e+06          1.8349e+08
    3.39              319946             479.298        -6.64155e+06         1.83273e+08
    3.41              319442             478.341        -6.63324e+06         1.83054e+08
    3.43              318936             477.381        -6.62488e+06         1.82834e+08
    3.45              318428             476.418        -6.61647e+06         1.82613e+08
    3.47              317917             475.452        -6.60801e+06          1.8239e+08
    3.49              317404             474.482        -6.59949e+06         1.82166e+08
    3.51              316888              473.51        -6.59092e+06         1.81941e+08
    3.53              316370             472.535        -6.58231e+06         1.81714e+08
    3.55              315849             471.557        -6.57364e+06         1.81486e+08
    3.57              315326             470.576        -6.56491e+06         1.81257e+08
    3.59              314801             469.592        -6.55614e+06         1.81026e+08
    3.61              314273             468.606        -6.54732e+06         1.80794e+08
    3.63              313743             467.617        -6.53844e+06         1.80561e+08
    3.65              313210             466.625        -6.52952e+06         1.80326e+08
    3.67              312675              465.63        -6.52054e+06          1.8009e+08
    3.69              312138             464.632        -6.51151e+06         1.79852e+08
    3.71              311598             463.633        -6.50243e+06         1.79614e+08
    3.73              311056              462.63         -6.4933e+06         1.79374e+08
    3.75              310512             461.625        -6.48412e+06         1.79132e+08
    3.77              309966             460.617        -6.47488e+06          1.7889e+08
    3.79              309417             459.607         -6.4656e+06         1.78646e+08
    3.81              308865             458.595        -6.45627e+06           1.784e+08
    3.83              308312              457.58        -6.44688e+06         1.78154e+08
    3.85              307756             456.563        -6.43744e+06         1.77906e+08
    3.87              307198             455.543        -6.42796e+06         1.77656e+08
    3.89              306638             454.522        -6.41842e+06         1.77406e+08
    3.91              306076             453.498        -6.40883e+06         1.77154e+08
    3.93              305511             452.472        -6.39919e+06           1.769e+08
    3.95              304944             451.443         -6.3895e+06         1.76646e+08
    3.97              304375             450.413        -6.37976e+06          1.7639e+08
    3.99              303804              449.38        -6.36998e+06         1.76133e+08
    4.01              303230             448.346        -6.36014e+06         1.75874e+08
    4.03              302654             447.309        -6.35025e+06         1.75615e+08
    4.05              302077             446.271        -6.34031e+06         1.75353e+08
    4.07              301497              445.23        -6.33032e+06         1.75091e+08
    4.09              300914             444.188        -6.32028e+06         1.74827e+08
    4.11              300330             443.144        -6.31019e+06         1.74562e+08
    4.13              299744             442.098        -6.30005e+06         1.74296e+08
    4.15              299155              441.05        -6.28986e+06         1.74029e+08
    4.17              298564                 440        -6.27962e+06          1.7376e+08
    4.19              297972             438.949        -6.26933e+06          1.7349e+08
    4.21              297377             437.896          -6.259e+06         1.73218e+08
    4.23              296780             436.842        -6.24861e+06         1.72946e+08
    4.25              296181             435.786        -6.23818e+06         1.72672e+08
    4.27              295580             434.728        -6.22769e+06         1.72397e+08
    4.29              294977             433.669        -6.21716e+06          1.7212e+08
    4.31              294372             432.608        -6.20658e+06         1.71842e+08
    4.33              293765             431.546        -6.19595e+06         1.71563e+08
    4.35              293156             430.483        -6.18527e+06         1.71283e+08
    4.37              292545             429.418        -6.17454e+06         1.71002e+08
    4.39              291932             428.352        -6.16377e+06         1.70719e+08
    4.41              291317             427.284        -6.15294e+06         1.70435e+08
    4.43              290700             426.215        -6.14207e+06          1.7015e+08
    4.45              290081             425.146        -6.13115e+06         1.69863e+08
